#WL(nm)   %
300.00	0.024426688
301.00	0.021054501
302.00	0.020234706
303.00	0.023264587
304.00	0.002567526
305.00	-0.000112721
306.00	0.000217801
307.00	0.000166167
308.00	-0.000026168
309.00	0.000745121
310.00	0.001535770
311.00	0.000028367
312.00	0.000095549
313.00	0.003320966
314.00	0.004594422
315.00	0.002273917
316.00	0.000363734
317.00	0.000150984
318.00	0.005119830
319.00	0.008465256
320.00	0.003124489
321.00	0.000677180
322.00	0.000691760
323.00	0.004749325
324.00	0.006909252
325.00	0.000354180
326.00	0.002402174
327.00	0.017963065
328.00	0.028349098
329.00	0.000107517
330.00	0.000099018
331.00	0.000641490
332.00	-0.000076191
333.00	0.000036911
334.00	0.000291587
335.00	0.000277162
336.00	0.001168855
337.00	0.000077808
338.00	-0.000274564
339.00	0.000127799
340.00	-0.000358426
341.00	-0.000480440
342.00	0.000064911
343.00	-0.000119171
344.00	0.000077913
345.00	0.000465505
346.00	0.000922942
347.00	0.013057121
348.00	0.003858073
349.00	0.000222761
350.00	0.000077657
351.00	-0.000042986
352.00	0.000024513
353.00	0.000029475
354.00	0.000265478
355.00	0.006125560
356.00	0.022025701
357.00	0.002022523
358.00	0.000128149
359.00	-0.000067505
360.00	-0.000026092
361.00	0.000018074
362.00	-0.000042332
363.00	-0.000053350
364.00	-0.000126000
365.00	-0.000027483
366.00	0.000041609
367.00	-0.000104412
368.00	-0.000032078
369.00	-0.000009785
370.00	0.000044739
371.00	0.000055579
372.00	0.000062133
373.00	-0.000050496
374.00	-0.000056458
375.00	-0.000063436
376.00	-0.000051713
377.00	0.000030536
378.00	0.000041567
379.00	-0.000092873
380.00	-0.000041969
381.00	-0.000024481
382.00	0.000258355
383.00	-0.000030289
384.00	-0.000118568
385.00	0.000039445
386.00	0.000368898
387.00	0.003150717
388.00	0.001266971
389.00	-0.000060250
390.00	-0.000120099
391.00	0.000154665
392.00	0.001226762
393.00	-0.000048227
394.00	-0.000051429
395.00	0.000301569
396.00	0.000417432
397.00	-0.000051409
398.00	0.000322817
399.00	0.000035254
400.00	0.000159755
401.00	0.001600867
402.00	0.000190202
403.00	0.003096739
404.00	0.001460301
405.00	0.002134132
406.00	0.001704829
407.00	0.000024123
408.00	0.000093488
409.00	0.000089601
410.00	-0.000082226
411.00	0.000004552
412.00	0.000099230
413.00	-0.000004125
414.00	0.000108070
415.00	0.000722501
416.00	0.000088853
417.00	0.000012856
418.00	0.000390068
419.00	0.000347555
420.00	0.000009577
421.00	0.001162210
422.00	0.002843325
423.00	0.001008666
424.00	0.004263366
425.00	0.001303529
426.00	0.000715772
427.00	0.000654914
428.00	0.000564121
429.00	0.001364113
430.00	0.000437486
431.00	0.000202754
432.00	0.001414965
433.00	0.002108067
434.00	0.001403841
435.00	0.002322997
436.00	0.001500318
437.00	0.000761201
438.00	0.000100976
439.00	-0.000001275
440.00	0.000128265
441.00	0.000115181
442.00	0.000027316
443.00	0.000384788
444.00	0.001249416
445.00	0.000224342
446.00	0.000120871
447.00	0.000958472
448.00	0.000616050
449.00	0.000237757
450.00	0.001856021
451.00	0.003877048
452.00	0.000605107
453.00	0.000217373
454.00	0.000104814
455.00	0.000107851
456.00	0.000240362
457.00	0.002116394
458.00	0.006012879
459.00	0.001784076
460.00	0.000724269
461.00	0.001559141
462.00	0.003875035
463.00	0.002403850
464.00	0.001759803
465.00	0.001210443
466.00	0.000297609
467.00	0.000073320
468.00	0.000043322
469.00	0.000032675
470.00	-0.000053260
471.00	-0.000052364
472.00	-0.000084815
473.00	-0.000072636
474.00	0.000010805
475.00	0.000136664
476.00	-0.000051730
477.00	-0.000073668
478.00	-0.000105587
479.00	-0.000083056
480.00	-0.000071132
481.00	-0.000055140
482.00	-0.000065638
483.00	-0.000048458
484.00	0.000038287
485.00	0.000033795
486.00	0.000031318
487.00	0.000164350
488.00	0.000208014
489.00	0.000079801
490.00	0.000135753
491.00	0.000331762
492.00	0.000260606
493.00	0.000117909
494.00	0.000121264
495.00	0.000018607
496.00	-0.000032147
497.00	-0.000078107
498.00	-0.000063322
499.00	-0.000062893
500.00	-0.000033608
501.00	0.000170372
502.00	0.000655634
503.00	0.000136312
504.00	-0.000021280
505.00	0.000073993
506.00	0.000372289
507.00	0.000107104
508.00	-0.000045484
509.00	-0.000061053
510.00	0.000018591
511.00	0.000026556
512.00	-0.000039691
513.00	-0.000060726
514.00	-0.000073615
515.00	-0.000083646
516.00	-0.000075762
517.00	-0.000040351
518.00	0.000073340
519.00	0.001101342
520.00	0.001381765
521.00	0.000837280
522.00	0.002050793
523.00	0.004675689
524.00	0.001917853
525.00	0.000490280
526.00	0.000368423
527.00	0.000543360
528.00	0.000599519
529.00	0.000232755
530.00	0.000043482
531.00	-0.000005137
532.00	-0.000004591
533.00	0.000129743
534.00	0.000379119
535.00	0.000632978
536.00	0.000410493
537.00	0.000344827
538.00	0.000556946
539.00	0.001739800
540.00	0.003959227
541.00	0.004054387
542.00	0.004395301
543.00	0.005223026
544.00	0.002687956
545.00	0.001013555
546.00	0.000624367
547.00	0.000591634
548.00	0.000831339
549.00	0.000804028
550.00	0.000427322
551.00	0.000220280
552.00	0.000094240
553.00	0.000061162
554.00	0.000048903
555.00	0.000071646
556.00	0.000145629
557.00	0.000487218
558.00	0.002296831
559.00	0.011771852
560.00	0.013279500
561.00	0.007297047
562.00	0.005678118
563.00	0.003589303
564.00	0.001863860
565.00	0.001179910
566.00	0.001057358
567.00	0.001391739
568.00	0.002261848
569.00	0.003141976
570.00	0.002676340
571.00	0.001689409
572.00	0.001301093
573.00	0.001190572
574.00	0.001488587
575.00	0.002141319
576.00	0.003275476
577.00	0.004843588
578.00	0.005886600
579.00	0.005439543
580.00	0.004249337
581.00	0.003238570
582.00	0.002828560
583.00	0.002700567
584.00	0.002719438
585.00	0.002604477
586.00	0.002327572
587.00	0.001952783
588.00	0.001827791
589.00	0.001810811
590.00	0.002092223
591.00	0.002499322
592.00	0.002418822
593.00	0.002093500
594.00	0.001979626
595.00	0.001987403
596.00	0.002219076
597.00	0.002256695
598.00	0.001796034
599.00	0.001283197
600.00	0.000941112
601.00	0.000832250
602.00	0.000951700
603.00	0.001269638
604.00	0.002079166
605.00	0.003751363
606.00	0.006302631
607.00	0.007442183
608.00	0.006135000
609.00	0.004262170
610.00	0.002818502
611.00	0.001997714
612.00	0.001637560
613.00	0.001558784
614.00	0.001704667
615.00	0.002201006
616.00	0.002852488
617.00	0.003204676
618.00	0.003104559
619.00	0.002948860
620.00	0.003102887
621.00	0.003758771
622.00	0.004706650
623.00	0.004821218
624.00	0.003762053
625.00	0.002729726
626.00	0.002362062
627.00	0.002564609
628.00	0.003520781
629.00	0.005681298
630.00	0.008233330
631.00	0.007404677
632.00	0.004941858
633.00	0.003422553
634.00	0.003037360
635.00	0.003216155
636.00	0.003604015
637.00	0.003710033
638.00	0.003473820
639.00	0.003057174
640.00	0.002698623
641.00	0.002620874
642.00	0.002688716
643.00	0.002683707
644.00	0.002564069
645.00	0.002292190
646.00	0.002226274
647.00	0.002326248
648.00	0.002680927
649.00	0.002989008
650.00	0.002637591
651.00	0.001749628
652.00	0.001100312
653.00	0.000704457
654.00	0.000551283
655.00	0.000466569
656.00	0.000452480
657.00	0.000574765
658.00	0.000831725
659.00	0.001454512
660.00	0.003318690
661.00	0.007337334
662.00	0.007473062
663.00	0.003923587
664.00	0.002160499
665.00	0.001540612
666.00	0.001308312
667.00	0.001252321
668.00	0.001284645
669.00	0.001352538
670.00	0.001443958
671.00	0.001515799
672.00	0.001511046
673.00	0.001560052
674.00	0.001625546
675.00	0.001757374
676.00	0.001973373
677.00	0.002532732
678.00	0.003428513
679.00	0.004919602
680.00	0.007875681
681.00	0.013844270
682.00	0.027312228
683.00	0.062349696
684.00	0.168534502
685.00	0.594860792
686.00	2.742765665
687.00	8.853799820
688.00	10.976310730
689.00	10.275779720
690.00	13.332523350
691.00	23.719558720
692.00	47.817466740
693.00	81.740745540
694.00	97.088104250
695.00	95.197280880
696.00	94.291931150
697.00	96.704429630
698.00	98.600120540
699.00	98.356849670
700.00	97.677078250
701.00	97.663108830
702.00	98.424476620
703.00	98.804977420
704.00	97.981040950
705.00	96.618202210
706.00	95.988502500
707.00	96.376625060
708.00	97.310928340
709.00	98.391349790
710.00	98.838653560
711.00	98.617515560
712.00	98.151176450
713.00	98.073486330
714.00	98.127243040
715.00	98.329368590
716.00	98.384635930
717.00	98.394554140
718.00	98.152359010
719.00	97.976066590
720.00	98.234107970
721.00	98.473434450
722.00	98.763252260
723.00	99.002433780
724.00	99.035614010
725.00	98.822387700
726.00	98.743515010
727.00	98.652832030
728.00	98.730369570
729.00	98.823776250
730.00	98.726882930
731.00	98.436912540
732.00	98.080116270
733.00	98.185798650
734.00	98.117568970
735.00	98.452980040
736.00	98.553863530
737.00	98.722587590
738.00	98.452964780
739.00	98.361534120
740.00	98.033958440
741.00	97.771980290
742.00	98.043975830
743.00	98.204185490
744.00	98.779991150
745.00	98.956550600
746.00	99.101135250
747.00	98.828208920
748.00	98.520675660
749.00	98.005065920
750.00	97.808502200
751.00	97.730628970
752.00	97.930664060
753.00	97.993240360
754.00	98.250587460
755.00	98.499664310
756.00	98.950576780
757.00	98.949432370
758.00	98.602188110
759.00	98.462631230
760.00	98.338630680
761.00	98.275596620
762.00	98.360107420
763.00	98.571754460
764.00	99.097366330
765.00	99.230247500
766.00	99.119117740
767.00	98.896392820
768.00	98.511413570
769.00	98.189453130
770.00	97.943099980
771.00	97.791534420
772.00	98.229957580
773.00	98.356719970
774.00	98.835464480
775.00	98.884620670
776.00	99.455520630
777.00	98.921493530
778.00	98.862876890
779.00	98.585800170
780.00	98.802154540
781.00	98.751403810
782.00	98.638656620
783.00	98.589172360
784.00	98.730529790
785.00	98.560073850
786.00	98.856994630
787.00	98.880836490
788.00	98.950805660
789.00	98.819122310
790.00	98.888671880
791.00	99.060470580
792.00	98.982879640
793.00	99.104194640
794.00	99.067596440
795.00	99.146018980
796.00	99.026466370
797.00	99.058639530
798.00	99.039802550
799.00	99.272216800
800.00	99.176841740
800.00	99.004699710
800.20	99.144157410
800.40	99.195632930
800.60	99.229354860
800.80	99.192222600
801.00	99.174499510
801.20	99.142707820
801.40	99.196426390
801.60	99.185218810
801.80	99.145584110
802.00	99.151176450
802.20	99.119255070
802.40	99.209312440
802.60	99.219169620
802.80	99.147911070
803.00	99.087608340
803.20	99.062919620
803.40	99.115173340
803.60	99.142112730
803.80	99.144378660
804.00	99.133003230
804.20	99.075386050
804.40	99.109230040
804.60	99.152656560
804.80	99.065139770
805.00	99.228050230
805.20	99.122100830
805.40	99.101982120
805.60	99.202034000
805.80	99.165122990
806.00	99.121383670
806.20	99.158111570
806.40	99.138412480
806.60	99.144065860
806.80	99.125434880
807.00	99.030380250
807.20	99.130447390
807.40	99.103981020
807.60	99.043243410
807.80	99.101966860
808.00	99.079307560
808.20	99.074134830
808.40	99.099540710
808.60	99.075096130
808.80	99.067054750
809.00	99.045875550
809.20	99.090332030
809.40	99.082672120
809.60	99.063179020
809.80	99.038925170
810.00	99.111083980
810.20	99.019775390
810.40	99.070663450
810.60	99.129295350
810.80	99.037391660
811.00	99.000427250
811.20	99.095176700
811.40	99.038513180
811.60	99.030845640
811.80	99.131073000
812.00	99.081390380
812.20	99.062934880
812.40	99.104309080
812.60	99.046669010
812.80	99.024505620
813.00	99.080017090
813.20	99.037185670
813.40	99.085823060
813.60	99.077301030
813.80	99.048622130
814.00	99.174705510
814.20	99.127128600
814.40	99.089431760
814.60	99.059951780
814.80	99.084213260
815.00	99.120292660
815.20	99.084053040
815.40	99.095664980
815.60	99.096954350
815.80	99.080505370
816.00	99.092254640
816.20	99.061149600
816.40	99.088546750
816.60	99.069313050
816.80	99.189903260
817.00	99.142463680
817.20	99.130493160
817.40	99.262992860
817.60	99.103828430
817.80	99.103591920
818.00	99.105918880
818.20	99.124610900
818.40	99.300071720
818.60	99.211837770
818.80	99.200599670
819.00	99.299888610
819.20	99.221031190
819.40	99.252716060
819.60	99.282730100
819.80	99.280815120
820.00	99.326507570
820.20	99.328704830
820.40	99.337142940
820.60	99.286453250
820.80	99.314483640
821.00	99.330276490
821.20	99.374809270
821.40	99.440208440
821.60	99.314376830
821.80	99.367279050
822.00	99.400848390
822.20	99.391250610
822.40	99.404197690
822.60	99.321899410
822.80	99.437477110
823.00	99.457458500
823.20	99.453948970
823.40	99.358779910
823.60	99.419296260
823.80	99.488227840
824.00	99.431907650
824.20	99.400947570
824.40	99.431877140
824.60	99.511589050
824.80	99.436584470
825.00	99.433662410
825.20	99.435791020
825.40	99.425872800
825.60	99.455673220
825.80	99.466720580
826.00	99.468437190
826.20	99.534660340
826.40	99.430923460
826.60	99.382034300
826.80	99.467605590
827.00	99.436431880
827.20	99.436676030
827.40	99.378921510
827.60	99.499244690
827.80	99.476120000
828.00	99.411758420
828.20	99.288215640
828.40	99.321342470
828.60	99.422691350
828.80	99.323944090
829.00	99.242919920
829.20	99.168243410
829.40	99.144546510
829.60	99.053459170
829.80	98.924812320
830.00	98.925796510
830.20	98.780288700
830.40	98.644409180
830.60	98.539886470
830.80	98.263778690
831.00	98.061889650
831.20	97.866416930
831.40	97.627899170
831.60	97.442092900
831.80	97.029495240
832.00	96.734573360
832.20	96.370918270
832.40	96.033515930
832.60	95.575752260
832.80	95.146385190
833.00	94.633087160
833.20	94.246841430
833.40	93.624389650
833.60	93.030075070
833.80	92.498382570
834.00	91.848358150
834.20	91.190650940
834.40	90.427162170
834.60	89.731575010
834.80	89.097854610
835.00	88.409713750
835.20	87.471847530
835.40	86.718002320
835.60	85.783004760
835.80	85.107925420
836.00	84.039840700
836.20	83.189338680
836.40	82.206085210
836.60	81.376724240
836.80	80.215965270
837.00	79.147392270
837.20	78.054939270
837.40	77.094047550
837.60	76.043525700
837.80	74.853202820
838.00	73.812965390
838.20	72.567993160
838.40	71.598480220
838.60	70.264694210
838.80	69.193634030
839.00	67.918106080
839.20	66.809860230
839.40	65.478340150
839.60	64.283149720
839.80	62.960689540
840.00	61.899356840
840.20	60.689376830
840.40	59.323543550
840.60	58.156944270
840.80	56.968212130
841.00	55.924900050
841.20	54.479808810
841.40	53.293293000
841.60	52.028202060
841.80	50.947753910
842.00	49.689468380
842.20	48.584083560
842.40	47.321338650
842.60	46.320007320
842.80	45.138183590
843.00	43.899696350
843.20	42.859592440
843.40	41.803245540
843.60	40.959857940
843.80	39.824512480
844.00	38.990451810
844.20	38.065494540
844.40	37.389984130
844.60	36.422805790
844.80	35.640663150
845.00	34.891162870
845.20	34.271396640
845.40	33.491809840
845.60	32.682476040
845.80	31.981798170
846.00	31.269741060
846.20	30.603017810
846.40	29.752979280
846.60	29.083999630
846.80	28.340608600
847.00	27.748456950
847.20	26.987281800
847.40	26.343334200
847.60	25.596570970
847.80	25.035058980
848.00	24.324449540
848.20	23.650650020
848.40	23.023256300
848.60	22.414768220
848.80	21.853372570
849.00	21.145986560
849.20	20.628776550
849.40	19.985618590
849.60	19.522329330
849.80	18.831960680
850.00	18.289995190
850.20	17.711963650
850.40	17.217113490
850.60	16.642511370
850.80	16.084960940
851.00	15.560303690
851.20	15.071675300
851.40	14.600465770
851.60	14.019749640
851.80	13.576897620
852.00	13.060744290
852.20	12.666056630
852.40	12.144066810
852.60	11.716404910
852.80	11.246621130
853.00	10.884165760
853.20	10.411811830
853.40	9.964546204
853.60	9.564513206
853.80	9.172764778
854.00	8.826524734
854.20	8.396497726
854.40	8.062651634
854.60	7.698742867
854.80	7.397337437
855.00	7.004209518
855.20	6.674033165
855.40	6.332887173
855.60	6.055562973
855.80	5.739583492
856.00	5.443919659
856.20	5.141025543
856.40	4.893141747
856.60	4.633877277
856.80	4.337359428
857.00	4.099605083
857.20	3.856643200
857.40	3.659642458
857.60	3.399747610
857.80	3.201363325
858.00	2.974112988
858.20	2.807321310
858.40	2.579711199
858.60	2.390407324
858.80	2.218162060
859.00	2.063205004
859.20	1.909581900
859.40	1.740613818
859.60	1.606718063
859.80	1.472271681
860.00	1.362327576
860.20	1.222839952
860.40	1.116338730
860.60	1.001903296
860.80	0.915183246
861.00	0.812175691
861.20	0.728192747
861.40	0.642291069
861.60	0.578642666
861.80	0.510110796
862.00	0.440511942
862.20	0.388125569
862.40	0.338351309
862.60	0.297763079
862.80	0.251244485
863.00	0.220392108
863.20	0.186773837
863.40	0.165908113
863.60	0.137729168
863.80	0.117840469
864.00	0.098911524
864.20	0.085308880
864.40	0.073416173
864.60	0.060921542
864.80	0.053947896
865.00	0.046277780
865.20	0.041398179
865.40	0.034664866
865.60	0.030120671
865.80	0.026414879
866.00	0.024422329
866.20	0.020776460
866.40	0.019163601
866.60	0.017362118
866.80	0.015622189
867.00	0.013301520
867.20	0.011995000
867.40	0.011540526
867.60	0.009499039
867.80	0.009459817
868.00	0.008429282
868.20	0.007768873
868.40	0.007593814
868.60	0.007357980
868.80	0.006596665
869.00	0.005897135
869.20	0.006114163
869.40	0.005919222
869.60	0.005635100
869.80	0.004705081
870.00	0.004225662
870.20	0.004593667
870.40	0.004108851
870.60	0.003701218
870.80	0.004579939
871.00	0.003258888
871.20	0.003540913
871.40	0.003001580
871.60	0.002685233
871.80	0.003274575
872.00	0.002527031
872.20	0.002537220
872.40	0.002484044
872.60	0.001759522
872.80	0.002818936
873.00	0.002693175
873.20	0.002722099
873.40	0.001971702
873.60	0.001529899
873.80	0.002258761
874.00	0.002263713
874.20	0.001851987
874.40	0.001881731
874.60	0.001799804
874.80	0.001768073
875.00	0.001563482
875.20	0.001565677
875.40	0.001520504
875.60	0.001449783
875.80	0.001212589
876.00	0.001341610
876.20	0.001254179
876.40	0.001232617
876.60	0.001472874
876.80	0.000895330
877.00	0.000689026
877.20	0.001182489
877.40	0.001092058
877.60	0.000951527
877.80	0.001347087
878.00	0.000505312
878.20	0.000991686
878.40	0.001038846
878.60	0.001021504
878.80	0.001043468
879.00	0.001354135
879.20	0.001090195
879.40	0.001244197
879.60	0.000469193
879.80	0.000986094
880.00	0.000951849
880.20	0.000512960
880.40	0.000946382
880.60	0.000917947
880.80	0.000379539
881.00	0.001129527
881.20	0.000712018
881.40	0.000626521
881.60	0.000516767
881.80	0.000579095
882.00	0.000913670
882.20	0.000401683
882.40	0.000888840
882.60	0.000242015
882.80	0.000672467
883.00	0.000555828
883.20	0.000994341
883.40	0.000443531
883.60	0.000466925
883.80	0.000606224
884.00	0.000852245
884.20	0.000816406
884.40	0.000472160
884.60	0.000293451
884.80	0.000821259
885.00	0.000661972
885.20	0.000674024
885.40	0.000771035
885.60	0.000987119
885.80	0.000702692
886.00	0.001131245
886.20	0.000599269
886.40	0.000972055
886.60	0.001098093
886.80	0.001124968
887.00	0.000663496
887.20	0.000779915
887.40	0.001069517
887.60	0.000722329
887.80	0.000857864
888.00	0.001331204
888.20	0.000989373
888.40	0.001333768
888.60	0.001078209
888.80	0.001069094
889.00	0.001418859
889.20	0.001724481
889.40	0.001065623
889.60	0.001316081
889.80	0.001387729
890.00	0.001622535
890.20	0.001267592
890.40	0.001491287
890.60	0.001340131
890.80	0.001410170
891.00	0.001765801
891.20	0.001152452
891.40	0.001524247
891.60	0.001966955
891.80	0.001243468
892.00	0.001588239
892.20	0.002220250
892.40	0.001285062
892.60	0.001571298
892.80	0.001219050
893.00	0.001582182
893.20	0.001768984
893.40	0.001504487
893.60	0.001405047
893.80	0.001668211
894.00	0.001490891
894.20	0.001751333
894.40	0.001773955
894.60	0.001857366
894.80	0.001507790
895.00	0.001955356
895.20	0.001709421
895.40	0.001835920
895.60	0.001642791
895.80	0.001976804
896.00	0.001876693
896.20	0.001750226
896.40	0.001842633
896.60	0.001774676
896.80	0.002006552
897.00	0.001830549
897.20	0.002006685
897.40	0.002061887
897.60	0.002124750
897.80	0.002229118
898.00	0.002321762
898.20	0.002048941
898.40	0.002156919
898.60	0.001844396
898.80	0.002248864
899.00	0.002216876
899.20	0.002174180
899.40	0.002366788
899.60	0.002250449
899.80	0.002125958
900.00	0.002367725
900.20	0.002018339
900.40	0.001856283
900.60	0.002375926
900.80	0.002297212
901.00	0.002538478
901.20	0.001993041
901.40	0.002202289
901.60	0.002264504
901.80	0.001973739
902.00	0.002521792
902.20	0.002152273
902.40	0.002540266
902.60	0.002197059
902.80	0.002569841
903.00	0.002349047
903.20	0.002319851
903.40	0.002497709
903.60	0.002335989
903.80	0.002339311
904.00	0.002453180
904.20	0.002327587
904.40	0.002394655
904.60	0.002375207
904.80	0.002111641
905.00	0.002197510
905.20	0.002221524
905.40	0.002036388
905.60	0.002370724
905.80	0.002400980
906.00	0.002096151
906.20	0.002428439
906.40	0.001920324
906.60	0.002023141
906.80	0.002196590
907.00	0.002324052
907.20	0.001889479
907.40	0.002094317
907.60	0.001853619
907.80	0.001856171
908.00	0.001931363
908.20	0.002037230
908.40	0.002013209
908.60	0.001837494
908.80	0.001630949
909.00	0.001748694
909.20	0.001710005
909.40	0.001790742
909.60	0.001913988
909.80	0.001673263
910.00	0.001767140
910.20	0.001661440
910.40	0.001539894
910.60	0.001302789
910.80	0.001553389
911.00	0.001642943
911.20	0.001475172
911.40	0.001490095
911.60	0.001204681
911.80	0.001399797
912.00	0.001448674
912.20	0.001339878
912.40	0.001450803
912.60	0.001333561
912.80	0.001257331
913.00	0.001125473
913.20	0.001333346
913.40	0.001208165
913.60	0.001407903
913.80	0.001282300
914.00	0.001167711
914.20	0.001343392
914.40	0.001041787
914.60	0.001011694
914.80	0.001040350
915.00	0.000923207
915.20	0.001018910
915.40	0.000994502
915.60	0.001013663
915.80	0.000918531
916.00	0.000917478
916.20	0.001046994
916.40	0.000847742
916.60	0.000829667
916.80	0.000831665
917.00	0.000870668
917.20	0.000688571
917.40	0.000624683
917.60	0.000594458
917.80	0.000708533
918.00	0.000715090
918.20	0.000754368
918.40	0.000759412
918.60	0.000917061
918.80	0.000664819
919.00	0.000586169
919.20	0.000696165
919.40	0.000633021
919.60	0.000577125
919.80	0.000560843
920.00	0.000649308
920.20	0.000554658
920.40	0.000448734
920.60	0.000428279
920.80	0.000430621
921.00	0.000420688
921.20	0.000435773
921.40	0.000527360
921.60	0.000336158
921.80	0.000421056
922.00	0.000451712
922.20	0.000366910
922.40	0.000235394
922.60	0.000343447
922.80	0.000488998
923.00	0.000410005
923.20	0.000403649
923.40	0.000365650
923.60	0.000311337
923.80	0.000301939
924.00	0.000228006
924.20	0.000151907
924.40	0.000162100
924.60	0.000197126
924.80	0.000236145
925.00	0.000213304
925.20	0.000331758
925.40	0.000180196
925.60	0.000089040
925.80	0.000120124
926.00	0.000139227
926.20	0.000172819
926.40	-0.000013727
926.60	0.000197156
926.80	0.000236980
927.00	0.000112492
927.20	0.000210975
927.40	0.000097886
927.60	0.000071586
927.80	0.000169359
928.00	0.000156551
928.20	0.000196671
928.40	0.000107288
928.60	0.000010661
928.80	0.000286092
929.00	0.000244681
929.20	0.000145838
929.40	0.000218972
929.60	0.000120072
929.80	-0.000049497
930.00	0.000210196
930.20	0.000286327
930.40	0.000150480
930.60	0.000118144
930.80	0.000131142
931.00	0.000005327
931.20	-0.000044562
931.40	0.000271437
931.60	0.000058314
931.80	0.000052072
932.00	0.000290107
932.20	0.000036516
932.40	0.000138965
932.60	0.000248133
932.80	0.000137021
933.00	0.000135293
933.20	0.000211728
933.40	0.000070301
933.60	0.000106666
933.80	0.000122371
934.00	0.000093305
934.20	-0.000030390
934.40	0.000092789
934.60	0.000245564
934.80	-0.000064232
935.00	0.000058783
935.20	0.000173936
935.40	0.000155973
935.60	0.000120556
935.80	0.000086414
936.00	-0.000003804
936.20	0.000137835
936.40	0.000290267
936.60	0.000129911
936.80	0.000098124
937.00	-0.000023039
937.20	0.000160785
937.40	0.000087879
937.60	0.000073712
937.80	-0.000018012
938.00	0.000151330
938.20	0.000212165
938.40	-0.000002032
938.60	0.000131584
938.80	0.000218973
939.00	0.000045976
939.20	-0.000014148
939.40	0.000088266
939.60	0.000107999
939.80	0.000219066
940.00	0.000175231
940.20	0.000054984
940.40	0.000118939
940.60	-0.000001552
940.80	0.000088640
941.00	0.000178642
941.20	0.000085971
941.40	0.000117298
941.60	0.000105309
941.80	0.000033360
942.00	0.000081545
942.20	-0.000030574
942.40	0.000207147
942.60	0.000135164
942.80	0.000045325
943.00	0.000121400
943.20	0.000297611
943.40	0.000214041
943.60	0.000032234
943.80	-0.000005740
944.00	-0.000041263
944.20	0.000073970
944.40	0.000284479
944.60	-0.000038180
944.80	0.000216960
945.00	0.000030169
945.20	0.000027834
945.40	0.000094583
945.60	0.000096516
945.80	0.000124776
946.00	0.000120527
946.20	0.000262220
946.40	-0.000025318
946.60	0.000055865
946.80	0.000172683
947.00	-0.000048478
947.20	0.000163545
947.40	0.000159526
947.60	0.000173856
947.80	0.000227408
948.00	0.000048172
948.20	0.000111046
948.40	0.000129657
948.60	0.000092281
948.80	0.000113376
949.00	0.000243593
949.20	-0.000017378
949.40	0.000179679
949.60	0.000056654
949.80	0.000205381
950.00	0.000266939
950.20	0.000224094
950.40	-0.000017287
950.60	0.000176006
950.80	0.000160998
951.00	0.000020302
951.20	0.000212988
951.40	0.000105155
951.60	0.000139290
951.80	0.000153403
952.00	0.000072945
952.20	0.000132447
952.40	0.000176262
952.60	0.000100969
952.80	0.000196957
953.00	0.000237223
953.20	0.000185348
953.40	0.000040788
953.60	0.000080502
953.80	-0.000101746
954.00	0.000283333
954.20	0.000200579
954.40	0.000128000
954.60	0.000148708
954.80	0.000029419
955.00	-0.000006637
955.20	-0.000000352
955.40	0.000085943
955.60	0.000268939
955.80	0.000327623
956.00	-0.000118874
956.20	-0.000078617
956.40	0.000081564
956.60	0.000034787
956.80	0.000327830
957.00	0.000187131
957.20	0.000011471
957.40	0.000084584
957.60	0.000116635
957.80	0.000167863
958.00	0.000211323
958.20	0.000188482
958.40	0.000040025
958.60	0.000191976
958.80	0.000111714
959.00	0.000053442
959.20	0.000125115
959.40	0.000169038
959.60	0.000024509
959.80	0.000255803
960.00	-0.000061272
960.20	0.000135214
960.40	0.000166612
960.60	-0.000019258
960.80	0.000040583
961.00	0.000287889
961.20	0.000113087
961.40	0.000102355
961.60	0.000044886
961.80	0.000125404
962.00	0.000003292
962.20	0.000047593
962.40	0.000067218
962.60	0.000174034
962.80	0.000015301
963.00	-0.000022589
963.20	0.000080502
963.40	0.000155428
963.60	0.000015753
963.80	0.000088694
964.00	-0.000090805
964.20	0.000078114
964.40	0.000059357
964.60	0.000004483
964.80	0.000068781
965.00	-0.000025337
965.20	0.000038258
965.40	0.000159897
965.60	-0.000077161
965.80	0.000014060
966.00	-0.000000483
966.20	0.000229375
966.40	0.000049418
966.60	0.000073821
966.80	0.000051555
967.00	-0.000021577
967.20	0.000009854
967.40	0.000086806
967.60	0.000088243
967.80	0.000101314
968.00	0.000011003
968.20	-0.000078161
968.40	0.000060198
968.60	-0.000038300
968.80	-0.000124017
969.00	-0.000104207
969.20	0.000073649
969.40	-0.000013558
969.60	-0.000037079
969.80	0.000015401
970.00	-0.000025025
970.20	0.000080056
970.40	-0.000074125
970.60	-0.000026490
970.80	0.000012606
971.00	0.000091687
971.20	0.000126120
971.40	-0.000032057
971.60	0.000142934
971.80	-0.000019947
972.00	0.000047736
972.20	0.000122183
972.40	0.000043928
972.60	0.000051864
972.80	0.000083938
973.00	0.000069227
973.20	0.000200562
973.40	0.000202901
973.60	0.000026891
973.80	-0.000062204
974.00	0.000078234
974.20	0.000151409
974.40	0.000114782
974.60	0.000118930
974.80	-0.000010545
975.00	0.000038900
975.20	-0.000002997
975.40	0.000209090
975.60	0.000133902
975.80	0.000231922
976.00	-0.000037481
976.20	0.000016211
976.40	0.000085220
976.60	0.000006219
976.80	0.000093703
977.00	0.000071158
977.20	-0.000039488
977.40	0.000240612
977.60	-0.000038688
977.80	0.000016221
978.00	0.000013628
978.20	0.000089386
978.40	-0.000072356
978.60	0.000039507
978.80	0.000042419
979.00	0.000090402
979.20	0.000162476
979.40	-0.000002001
979.60	-0.000006850
979.80	0.000201295
980.00	0.000166077
980.20	-0.000005309
980.40	-0.000004167
980.60	0.000143927
980.80	0.000001438
981.00	0.000066322
981.20	0.000282792
981.40	0.000216484
981.60	0.000083510
981.80	0.000169981
982.00	-0.000058205
982.20	0.000101898
982.40	0.000013584
982.60	-0.000029861
982.80	0.000151488
983.00	0.000158381
983.20	0.000122237
983.40	0.000128497
983.60	-0.000067914
983.80	0.000053409
984.00	-0.000027941
984.20	-0.000076574
984.40	0.000073055
984.60	0.000093866
984.80	0.000213357
985.00	0.000087187
985.20	0.000150799
985.40	0.000007687
985.60	-0.000053080
985.80	0.000152030
986.00	-0.000089706
986.20	0.000038821
986.40	0.000106956
986.60	0.000030951
986.80	-0.000120146
987.00	0.000286541
987.20	0.000194064
987.40	0.000007034
987.60	0.000078523
987.80	0.000137621
988.00	0.000120895
988.20	0.000016211
988.40	0.000049446
988.60	0.000104031
988.80	0.000041420
989.00	-0.000002406
989.20	0.000025206
989.40	0.000168379
989.60	0.000289714
989.80	0.000007303
990.00	0.000095454
990.20	-0.000049321
990.40	0.000087497
990.60	0.000164884
990.80	0.000026723
991.00	0.000104848
991.20	0.000144500
991.40	-0.000036315
991.60	-0.000031105
991.80	0.000091750
992.00	0.000022238
992.20	-0.000097181
992.40	0.000083163
992.60	0.000165548
992.80	-0.000014052
993.00	0.000068651
993.20	0.000177624
993.40	0.000028978
993.60	0.000153169
993.80	0.000249468
994.00	0.000111453
994.20	0.000046003
994.40	0.000066207
994.60	-0.000020940
994.80	0.000044120
995.00	0.000145520
995.20	0.000236950
995.40	-0.000039186
995.60	0.000016492
995.80	0.000115702
996.00	-0.000054675
996.20	-0.000071573
996.40	0.000187196
996.60	0.000119681
996.80	0.000105610
997.00	0.000079341
997.20	0.000157139
997.40	0.000157698
997.60	-0.000024955
997.80	0.000126382
998.00	0.000119327
998.20	0.000024361
998.40	0.000114660
998.60	0.000221922
998.80	0.000089924
999.00	0.000126634
999.20	-0.000009246
999.40	-0.000000352
999.60	0.000062047
999.80	0.000019773
1000.00	0.000126708
1000.20	0.000146846
1000.40	0.000171477
1000.60	0.000148976
1000.80	-0.000154266
1001.00	-0.000081236
1001.20	-0.000013422
1001.40	-0.000086543
1001.60	0.000008584
1001.80	0.000041209
1002.00	-0.000061199
1002.20	-0.000002302
1002.40	0.000119299
1002.60	-0.000041908
1002.80	0.000100400
1003.00	0.000345928
1003.20	-0.000035692
1003.40	-0.000133921
1003.60	0.000098636
1003.80	-0.000010068
1004.00	0.000168156
1004.20	0.000134381
1004.40	-0.000106356
1004.60	0.000076748
1004.80	0.000127040
1005.00	-0.000047955
1005.20	0.000079309
1005.40	-0.000047835
1005.60	0.000002382
1005.80	0.000123742
1006.00	0.000061119
1006.20	0.000025700
1006.40	-0.000118625
1006.60	-0.000040738
1006.80	0.000127615
1007.00	0.000093892
1007.20	-0.000055383
1007.40	0.000088951
1007.60	0.000193544
1007.80	0.000012376
1008.00	0.000146308
1008.20	0.000042407
1008.40	0.000023690
1008.60	0.000066965
1008.80	0.000132338
1009.00	0.000061933
1009.20	0.000125782
1009.40	0.000249357
1009.60	0.000077186
1009.80	-0.000013457
1010.00	0.000007585
1010.20	-0.000128458
1010.40	-0.000002835
1010.60	0.000279126
1010.80	0.000159214
1011.00	0.000144431
1011.20	0.000116394
1011.40	0.000170473
1011.60	-0.000019981
1011.80	0.000119937
1012.00	0.000088321
1012.20	0.000073768
1012.40	0.000116205
1012.60	0.000251180
1012.80	-0.000095388
1013.00	0.000116240
1013.20	0.000058084
1013.40	-0.000002688
1013.60	0.000104669
1013.80	-0.000081363
1014.00	0.000078069
1014.20	0.000018238
1014.40	0.000106342
1014.60	0.000259963
1014.80	-0.000024028
1015.00	0.000216979
1015.20	0.000049502
1015.40	0.000135737
1015.60	0.000067489
1015.80	0.000099747
1016.00	-0.000007955
1016.20	0.000212444
1016.40	0.000040939
1016.60	-0.000014902
1016.80	-0.000004534
1017.00	0.000048669
1017.20	0.000127449
1017.40	0.000107132
1017.60	-0.000130582
1017.80	0.000190570
1018.00	0.000183775
1018.20	0.000070821
1018.40	0.000149031
1018.60	0.000118392
1018.80	0.000104898
1019.00	0.000051937
1019.20	0.000122350
1019.40	0.000106238
1019.60	0.000069914
1019.80	0.000131045
1020.00	0.000047426
1020.20	0.000098618
1020.40	-0.000004056
1020.60	0.000192177
1020.80	0.000102976
1021.00	0.000062291
1021.20	0.000194704
1021.40	-0.000028970
1021.60	0.000091802
1021.80	0.000201895
1022.00	-0.000015245
1022.20	-0.000002901
1022.40	0.000043944
1022.60	0.000087814
1022.80	0.000025896
1023.00	0.000172258
1023.20	-0.000045237
1023.40	0.000050012
1023.60	0.000126592
1023.80	0.000104759
1024.00	0.000070626
1024.20	0.000119734
1024.40	-0.000062327
1024.60	0.000023544
1024.80	-0.000070800
1025.00	0.000014739
1025.20	-0.000127440
1025.40	0.000122350
1025.60	0.000095496
1025.80	0.000082923
1026.00	0.000096971
1026.20	0.000117710
1026.40	0.000040911
1026.60	0.000109127
1026.80	0.000069191
1027.00	0.000182762
1027.20	-0.000009238
1027.40	-0.000006045
1027.60	-0.000074985
1027.80	0.000040014
1028.00	0.000185491
1028.20	-0.000010528
1028.40	0.000084668
1028.60	0.000034356
1028.80	0.000012572
1029.00	0.000057725
1029.20	-0.000000383
1029.40	0.000150785
1029.60	-0.000054216
1029.80	0.000044936
1030.00	-0.000065893
1030.20	0.000032008
1030.40	0.000101720
1030.60	0.000101554
1030.80	-0.000023289
1031.00	0.000000598
1031.20	0.000043685
1031.40	0.000167239
1031.60	0.000025978
1031.80	0.000211728
1032.00	0.000046391
1032.20	0.000079571
1032.40	0.000018801
1032.60	0.000128597
1032.80	0.000139236
1033.00	0.000161691
1033.20	0.000089306
1033.40	0.000067082
1033.60	0.000062538
1033.80	0.000040071
1034.00	0.000057813
1034.20	-0.000099111
1034.40	0.000170015
1034.60	0.000125060
1034.80	-0.000094247
1035.00	0.000072736
1035.20	0.000062832
1035.40	-0.000066338
1035.60	0.000243369
1035.80	-0.000027968
1036.00	0.000093473
1036.20	0.000036468
1036.40	0.000067878
1036.60	-0.000177491
1036.80	0.000052921
1037.00	0.000109686
1037.20	0.000062373
1037.40	0.000033841
1037.60	0.000074812
1037.80	0.000043897
1038.00	0.000094217
1038.20	0.000032361
1038.40	0.000049722
1038.60	0.000122172
1038.80	-0.000012323
1039.00	0.000056819
1039.20	0.000003565
1039.40	0.000164860
1039.60	0.000032663
1039.80	0.000091698
1040.00	0.000157690
1040.20	0.000180926
1040.40	0.000112309
1040.60	-0.000060676
1040.80	-0.000106359
1041.00	0.000164498
1041.20	0.000012220
1041.40	0.000157101
1041.60	0.000127662
1041.80	0.000032174
1042.00	0.000135907
1042.20	-0.000009222
1042.40	0.000118739
1042.60	0.000091739
1042.80	0.000245713
1043.00	0.000194009
1043.20	0.000279189
1043.40	0.000007815
1043.60	0.000228491
1043.80	0.000408057
1044.00	0.000251104
1044.20	0.000098509
1044.40	0.000202164
1044.60	0.000234184
1044.80	0.000132059
1045.00	0.000184013
1045.20	0.000430460
1045.40	0.000274477
1045.60	0.000205991
1045.80	0.000223769
1046.00	0.000245736
1046.20	0.000157663
1046.40	0.000386350
1046.60	0.000246679
1046.80	0.000398510
1047.00	0.000208076
1047.20	0.000286420
1047.40	0.000348310
1047.60	0.000332937
1047.80	0.000297263
1048.00	0.000434110
1048.20	0.000424995
1048.40	0.000485566
1048.60	0.000483231
1048.80	0.000410965
1049.00	0.000407886
1049.20	0.000359838
1049.40	0.000576654
1049.60	0.000564490
1049.80	0.000618973
1050.00	0.000572644
1050.20	0.000600040
1050.40	0.000506437
1050.60	0.000773789
1050.80	0.000632445
1051.00	0.000706667
1051.20	0.000695786
1051.40	0.000849738
1051.60	0.000813795
1051.80	0.000729132
1052.00	0.000784437
1052.20	0.000829413
1052.40	0.000705027
1052.60	0.000895239
1052.80	0.000822218
1053.00	0.001115054
1053.20	0.000913516
1053.40	0.001142636
1053.60	0.001107299
1053.80	0.001136695
1054.00	0.001249594
1054.20	0.001289886
1054.40	0.001294544
1054.60	0.001375271
1054.80	0.001517684
1055.00	0.001375374
1055.20	0.001530046
1055.40	0.001790803
1055.60	0.001910258
1055.80	0.001813530
1056.00	0.001957432
1056.20	0.002041220
1056.40	0.002279094
1056.60	0.002453390
1056.80	0.002627186
1057.00	0.002946944
1057.20	0.003245797
1057.40	0.003438251
1057.60	0.003976776
1057.80	0.004552891
1058.00	0.004979048
1058.20	0.005459789
1058.40	0.006366759
1058.60	0.006794961
1058.80	0.007391188
1059.00	0.008057707
1059.20	0.008878704
1059.40	0.009689000
1059.60	0.010362024
1059.80	0.011144038
1060.00	0.011743853
1060.20	0.012471961
1060.40	0.013248567
1060.60	0.014194778
1060.80	0.014804446
1061.00	0.015752325
1061.20	0.016509518
1061.40	0.017239470
1061.60	0.018100144
1061.80	0.019067489
1062.00	0.019660275
1062.20	0.020623274
1062.40	0.021635182
1062.60	0.022418246
1062.80	0.023281829
1063.00	0.024050767
1063.20	0.025014371
1063.40	0.025835004
1063.60	0.026812129
1063.80	0.027682550
1064.00	0.028829634
1064.20	0.029547486
1064.40	0.030416539
1064.60	0.031492624
1064.80	0.032135453
1065.00	0.033074446
1065.20	0.033869408
1065.40	0.034409828
1065.60	0.035229024
1065.80	0.036051594
1066.00	0.036807340
1066.20	0.037348762
1066.40	0.037998367
1066.60	0.038865402
1066.80	0.039632425
1067.00	0.040184613
1067.20	0.040902790
1067.40	0.041598089
1067.60	0.042025644
1067.80	0.042700477
1068.00	0.043164726
1068.20	0.044009019
1068.40	0.044560242
1068.60	0.045020923
1068.80	0.045432366
1069.00	0.045768160
1069.20	0.046192091
1069.40	0.046674848
1069.60	0.046815202
1069.80	0.046863642
1070.00	0.046852808
1070.20	0.046794042
1070.40	0.046543326
1070.60	0.046220802
1070.80	0.045856334
1071.00	0.045499504
1071.20	0.044973928
1071.40	0.044399116
1071.60	0.044039711
1071.80	0.043376893
1072.00	0.042713985
1072.20	0.042111713
1072.40	0.041550044
1072.60	0.041101404
1072.80	0.040331323
1073.00	0.039615005
1073.20	0.038891066
1073.40	0.038635388
1073.60	0.037758507
1073.80	0.037206743
1074.00	0.036548100
1074.20	0.036121845
1074.40	0.035355315
1074.60	0.034746539
1074.80	0.034043688
1075.00	0.033424269
1075.20	0.032913584
1075.40	0.032085638
1075.60	0.031521358
1075.80	0.030874440
1076.00	0.030304754
1076.20	0.029621920
1076.40	0.028810339
1076.60	0.028378667
1076.80	0.027686022
1077.00	0.027125990
1077.20	0.026461106
1077.40	0.026023205
1077.60	0.025512820
1077.80	0.024659783
1078.00	0.024227120
1078.20	0.023851700
1078.40	0.023347650
1078.60	0.022938475
1078.80	0.022359176
1079.00	0.022084482
1079.20	0.021668416
1079.40	0.021367909
1079.60	0.021142809
1079.80	0.020937458
1080.00	0.020736841
1080.20	0.020574244
1080.40	0.020629697
1080.60	0.020399047
1080.80	0.020665960
1081.00	0.020783769
1081.20	0.020946227
1081.40	0.021340285
1081.60	0.021689499
1081.80	0.022149561
1082.00	0.022551943
1082.20	0.023195967
1082.40	0.023924539
1082.60	0.024539217
1082.80	0.025115132
1083.00	0.025975337
1083.20	0.026914047
1083.40	0.027749579
1083.60	0.028711542
1083.80	0.029498449
1084.00	0.030416347
1084.20	0.031454161
1084.40	0.032443255
1084.60	0.033290599
1084.80	0.034704946
1085.00	0.035760738
1085.20	0.037199162
1085.40	0.038114093
1085.60	0.039656866
1085.80	0.041003149
1086.00	0.042247437
1086.20	0.043916766
1086.40	0.045224823
1086.60	0.046909682
1086.80	0.048370462
1087.00	0.049990527
1087.20	0.051384397
1087.40	0.053386461
1087.60	0.054778285
1087.80	0.056599900
1088.00	0.057990137
1088.20	0.059966598
1088.40	0.061317567
1088.60	0.062950172
1088.80	0.064410947
1089.00	0.065980077
1089.20	0.067778490
1089.40	0.069307707
1089.60	0.070980787
1089.80	0.072149493
1090.00	0.074009679
1090.20	0.075405099
1090.40	0.077372581
1090.60	0.078777447
1090.80	0.080644488
1091.00	0.082195908
1091.20	0.084264658
1091.40	0.085873835
1091.60	0.087907389
1091.80	0.089943714
1092.00	0.092201613
1092.20	0.094186679
1092.40	0.096326478
1092.60	0.098880231
1092.80	0.100879140
1093.00	0.103382498
1093.20	0.105368227
1093.40	0.108461022
1093.60	0.110779308
1093.80	0.113751859
1094.00	0.115924873
1094.20	0.118483990
1094.40	0.121003933
1094.60	0.123588517
1094.80	0.125865012
1095.00	0.127974078
1095.20	0.130783528
1095.40	0.133045182
1095.60	0.135282233
1095.80	0.137135729
1096.00	0.139630213
1096.20	0.141500950
1096.40	0.143607602
1096.60	0.145587713
1096.80	0.147533283
1097.00	0.149656430
1097.20	0.151510268
1097.40	0.153092682
1097.60	0.154879078
1097.80	0.156998754
1098.00	0.158509553
1098.20	0.160319001
1098.40	0.161510810
1098.60	0.163595319
1098.80	0.165145397
1099.00	0.166699633
1099.20	0.168029815
1099.40	0.169610456
1099.60	0.171005324
1099.80	0.172760040
1100.00	0.173492521
1100.20	0.174901903
1100.40	0.176182419
1100.60	0.177121744
1100.80	0.178012237
